ENVI
description = {
  File Resize Result, x resize factor: 1.000000, y resize factor: 1.000000.
  [Mon Aug 5 20:02:34 2013]}
samples = 190
lines   = 250
bands   = 188
header offset = 0
file type = ENVI Standard
data type = 2
interleave = bsq
sensor type = Unknown
byte order = 0
x start = 425
y start = 86
default bands = {26,17,8}
wavelength units = Nanometers
default stretch = 2.0 gaussian
wavelength = {
  390.089996,  399.920013,  409.750000,  419.579987,  429.410004,  439.230011,
  449.059998,  458.890015,  468.709991,  478.540009,  488.369995,  498.190002,
  508.019989,  517.840027,  527.669983,  537.489990,  547.320007,  557.140015,
  566.960022,  576.789978,  586.609985,  596.429993,  606.250000,  616.080017,
  625.900024,  635.719971,  645.539978,  655.359985,  665.179993,  675.000000,
  654.169983,  663.710022,  673.250000,  682.789978,  692.330017,  701.869995,
  711.409973,  720.950012,  730.489990,  740.030029,  749.570007,  759.119995,
  768.659973,  778.200012,  787.750000,  797.289978,  806.840027,  816.390015,
  825.929993,  835.479980,  845.030029,  854.580017,  864.119995,  873.669983,
  883.219971,  892.770020,  902.330017,  911.880005,  921.429993,  930.979980,
  946.349976,  955.760010,  965.169983,  974.580017,  983.989990,  993.390015,
 1002.799988, 1012.210022, 1021.619995, 1031.030029, 1040.439941, 1049.839966,
 1059.250000, 1068.660034, 1078.060059, 1087.469971, 1096.880005, 1106.280029,
 1115.689941, 1125.099976, 1134.500000, 1143.910034, 1153.310059, 1162.719971,
 1172.119995, 1181.520020, 1190.930054, 1200.329956, 1209.729980, 1219.140015,
 1228.540039, 1237.939941, 1247.349976, 1256.750000, 1255.569946, 1265.540039,
 1275.510010, 1285.479980, 1295.459961, 1305.430054, 1315.400024, 1425.030029,
 1434.989990, 1444.959961, 1454.920044, 1464.880005, 1474.839966, 1484.800049,
 1494.760010, 1504.719971, 1514.680054, 1524.640015, 1534.589966, 1544.550049,
 1554.510010, 1564.459961, 1574.420044, 1584.369995, 1594.319946, 1604.280029,
 1614.229980, 1624.180054, 1634.130005, 1644.089966, 1654.040039, 1663.989990,
 1673.939941, 1683.880005, 1693.829956, 1703.780029, 1713.729980, 1723.670044,
 1733.619995, 1743.560059, 1753.510010, 1951.369995, 1961.420044, 1971.469971,
 1981.510010, 1991.550049, 2001.589966, 2011.630005, 2021.660034, 2031.689941,
 2041.719971, 2051.750000, 2061.770020, 2071.790039, 2081.810059, 2091.820068,
 2101.830078, 2111.840088, 2121.850098, 2131.860107, 2141.860107, 2151.860107,
 2161.850098, 2171.850098, 2181.840088, 2191.830078, 2201.810059, 2211.800049,
 2221.780029, 2231.760010, 2241.729980, 2251.709961, 2261.679932, 2271.649902,
 2281.610107, 2291.570068, 2301.530029, 2311.489990, 2321.449951, 2331.399902,
 2341.350098, 2351.300049, 2361.239990, 2371.179932, 2381.120117, 2391.060059,
 2400.989990, 2410.929932, 2420.850098, 2430.780029, 2440.709961, 2450.629883,
 2460.550049, 2470.459961}
fwhm = {
  9.150000,  9.130000,  9.120000,  9.120000,  9.110000,  9.100000,  9.100000,
  9.100000,  9.090000,  9.090000,  9.090000,  9.090000,  9.100000,  9.100000,
  9.110000,  9.120000,  9.120000,  9.130000,  9.140000,  9.160000,  9.170000,
  9.180000,  9.200000,  9.220000,  9.240000,  9.260000,  9.280000,  9.300000,
  9.330000,  9.350000,  9.270000,  9.260000,  9.250000,  9.250000,  9.260000,
  9.270000,  9.300000,  9.330000,  9.360000,  9.410000,  9.460000,  9.520000,
  9.580000,  9.650000,  9.730000,  9.820000,  9.920000, 10.020000, 10.130000,
 10.240000, 10.370000, 10.500000, 10.640000, 10.780000, 10.940000, 11.100000,
 11.260000, 11.440000, 11.620000, 11.810000,  9.720000,  9.720000,  9.720000,
  9.720000,  9.720000,  9.720000,  9.720000,  9.720000,  9.720000,  9.720000,
  9.720000,  9.720000,  9.720000,  9.720000,  9.720000,  9.730000,  9.730000,
  9.730000,  9.730000,  9.730000,  9.740000,  9.740000,  9.740000,  9.740000,
  9.740000,  9.750000,  9.750000,  9.750000,  9.750000,  9.760000,  9.760000,
  9.760000,  9.770000,  9.770000, 10.500000, 10.520000, 10.540000, 10.570000,
 10.590000, 10.610000, 10.630000, 10.760000, 10.760000, 10.770000, 10.770000,
 10.770000, 10.770000, 10.770000, 10.770000, 10.770000, 10.760000, 10.760000,
 10.750000, 10.740000, 10.740000, 10.730000, 10.720000, 10.700000, 10.690000,
 10.680000, 10.660000, 10.650000, 10.630000, 10.610000, 10.590000, 10.570000,
 10.550000, 10.530000, 10.500000, 10.480000, 10.450000, 10.420000, 10.400000,
 10.370000, 10.340000, 10.870000, 10.870000, 10.870000, 10.860000, 10.860000,
 10.860000, 10.850000, 10.850000, 10.840000, 10.840000, 10.830000, 10.820000,
 10.810000, 10.800000, 10.790000, 10.780000, 10.770000, 10.760000, 10.750000,
 10.730000, 10.720000, 10.700000, 10.690000, 10.670000, 10.650000, 10.630000,
 10.620000, 10.600000, 10.580000, 10.550000, 10.530000, 10.510000, 10.490000,
 10.460000, 10.440000, 10.410000, 10.390000, 10.360000, 10.330000, 10.310000,
 10.280000, 10.250000, 10.220000, 10.190000, 10.160000, 10.120000, 10.090000,
 10.060000, 10.020000,  9.990000,  9.950000,  9.910000,  9.880000}
